# Usage: 
#    wirecell-sigproc convert-noise-spectra --format microboonev1 sbnd-noise-spectra-v1.txt sbnd-noise-spectra-v1.json.bz2
2.0 MHz 3000 Ticks 14.0 mV/fC 2.2 microsecond
Freq  0.677 577.348 0.677 577.348 399.0 401.0
Plane 0     0       1     1       2     2
-1    6.313 6.523   6.313 6.523   6.667 6.667
0 21.9221 72.2672 21.9221 72.2672 54.1149 54.1149
0.00909091 24.1643 74.756 24.1643 74.756 56.4798 56.4798
0.0181818 26.5241 77.4035 26.5241 77.4035 59.8807 59.8807
0.0272727 29.0971 80.3222 29.0971 80.3222 64.9744 64.9744
0.0363636 31.4686 87.1216 31.4686 87.1216 70.0389 70.0389
0.0454545 33.6836 95.2482 33.6836 95.2482 75.0658 75.0658
0.0545455 35.6644 100.366 35.6644 100.366 79.1626 79.1626
0.0636364 37.1492 104.01 37.1492 104.01 82.8345 82.8345
0.0727273 38.634 108.457 38.634 108.457 86.3682 86.3682
0.0818182 39.7546 112.563 39.7546 112.563 89.212 89.212
0.0909091 40.6617 114.813 40.6617 114.813 91.2051 91.2051
0.1 41.3538 117.063 41.3538 117.063 92.6235 92.6235
0.109091 41.8614 118.197 41.8614 118.197 93.5342 93.5342
0.118182 42.0724 118.535 42.0724 118.535 94.1905 94.1905
0.127273 41.5787 117.708 41.5787 117.708 93.619 93.619
0.136364 41.0851 116.469 41.0851 116.469 93.0475 93.0475
0.145455 40.1206 114.979 40.1206 114.979 91.6968 91.6968
0.154545 38.85 112.506 38.85 112.506 89.9533 89.9533
0.163636 37.5949 109.785 37.5949 109.785 87.2015 87.2015
0.172727 36.3965 106.639 36.3965 106.639 84.1069 84.1069
0.181818 35.198 102.1 35.198 102.1 80.9914 80.9914
0.190909 33.4868 96.7199 33.4868 96.7199 77.7768 77.7768
0.2 31.5275 90.8815 31.5275 90.8815 74.1872 74.1872
0.209091 29.6371 85.577 29.6371 85.577 70.4963 70.4963
0.218182 27.8374 80.7734 27.8374 80.7734 66.2073 66.2073
0.227273 26.0715 76.6378 26.0715 76.6378 61.8991 61.8991
0.236364 24.4495 72.227 24.4495 72.227 57.3704 57.3704
0.245455 22.8274 66.7484 22.8274 66.7484 52.8506 52.8506
0.254545 21.2382 61.024 21.2382 61.024 48.8773 48.8773
0.263636 19.7796 55.3185 19.7796 55.3185 44.904 44.904
0.272727 18.321 50.7357 18.321 50.7357 41.0777 41.0777
0.281818 16.7884 46.1658 16.7884 46.1658 37.3283 37.3283
0.290909 15.125 42.3812 15.125 42.3812 33.5789 33.5789
0.3 13.4615 38.5966 13.4615 38.5966 30.3948 30.3948
0.309091 12.1518 34.8958 12.1518 34.8958 27.6544 27.6544
0.318182 11.0154 31.3523 11.0154 31.3523 24.9139 24.9139
0.327273 9.87899 27.8088 9.87899 27.8088 22.1734 22.1734
0.336364 8.8255 24.4671 8.8255 24.4671 19.7336 19.7336
0.345455 7.78881 21.7844 7.78881 21.7844 17.6895 17.6895
0.354545 6.75211 19.1018 6.75211 19.1018 15.6634 15.6634
0.363636 5.87859 17.007 5.87859 17.007 13.8672 13.8672
0.372727 5.03558 15.1474 5.03558 15.1474 12.0709 12.0709
0.381818 4.19258 13.3052 4.19258 13.3052 10.5461 10.5461
0.390909 3.28796 11.826 3.28796 11.826 9.06515 9.06515
0.4 2.20375 10.3469 2.20375 10.3469 7.58423 7.58423
0.409091 1.11954 8.92952 1.11954 8.92952 6.69466 6.69466
0.418182 0.0353237 8.21482 0.0353237 8.21482 5.86245 5.86245
0.427273 0 7.50012 0 7.50012 5.03024 5.03024
0.436364 0 6.78542 0 6.78542 4.55613 4.55613
0.445455 0 6.08877 0 6.08877 4.09599 4.09599
0.454545 0 5.60487 0 5.60487 3.63584 3.63584
0.463636 0 5.12097 0 5.12097 3.1757 3.1757
0.472727 0 4.63707 0 4.63707 2.80244 2.80244
0.481818 0 4.33137 0 4.33137 2.43085 2.43085
0.490909 0 4.19003 0 4.19003 2.05926 2.05926
0.5 0 4.04868 0 4.04868 1.69741 1.69741
0.509091 0 3.90734 0 3.90734 1.35883 1.35883
0.518182 0 3.76881 0 3.76881 1.02025 1.02025
0.527273 0 3.63038 0 3.63038 0.681677 0.681677
0.536364 0 3.49196 0 3.49196 0.3431 0.3431
0.545455 0 3.35353 0 3.35353 0.00452339 0.00452339
0.554545 0 3.2139 0 3.2139 0 0
0.563636 0 3.07421 0 3.07421 0 0
0.572727 0 2.93452 0 2.93452 0 0
0.581818 0 2.79483 0 2.79483 0 0
0.590909 0 2.70598 0 2.70598 0 0
0.6 0 2.70598 0 2.70598 0 0
0.609091 0 2.70598 0 2.70598 0 0
0.618182 0 2.70598 0 2.70598 0 0
0.627273 0 2.70598 0 2.70598 0 0
0.636364 0 2.70598 0 2.70598 0 0
0.645455 0 2.70598 0 2.70598 0 0
0.654545 0 2.70598 0 2.70598 0 0
0.663636 0 2.70598 0 2.70598 0 0
0.672727 0.208855 2.70598 0.208855 2.70598 0 0
0.681818 0.481408 2.70598 0.481408 2.70598 0 0
0.690909 0.753961 2.70598 0.753961 2.70598 0 0
0.7 1.02651 2.70598 1.02651 2.70598 0 0
0.709091 1.29907 2.70598 1.29907 2.70598 0 0
0.718182 1.52217 2.3751 1.52217 2.3751 0 0
0.727273 1.22626 1.91878 1.22626 1.91878 0 0
0.736364 0.930354 1.46246 0.930354 1.46246 0 0
0.745455 0.634445 1.00614 0.634445 1.00614 0 0
0.754545 0.338537 0.549816 0.338537 0.549816 0 0
0.763636 0.0426286 0.0934956 0.0426286 0.0934956 0 0
0.772727 0 0 0 0 0 0
0.781818 0 0 0 0 0 0
0.790909 0 0 0 0 0 0
0.8 0 0 0 0 0 0
0.809091 0 0 0 0 0 0
0.818182 0 0 0 0 0 0
0.827273 0 0 0 0 0 0
0.836364 0 0 0 0 0 0
0.845455 0 0 0 0 0 0
0.854545 0 0 0 0 0 0
0.863636 0 0 0 0 0 0
0.872727 0 0 0 0 0 0
0.881818 0 0 0 0 0 0
0.890909 0 0 0 0 0 0
0.9 0 0 0 0 0 0
0.909091 0 0 0 0 0 0
0.918182 0 0 0 0 0 0
0.927273 0 0 0 0 0 0
0.936364 0 0 0 0 0 0
0.945455 0 0 0 0 0 0
0.954545 0 0 0 0 0 0
0.963636 0 0 0 0 0 0
0.972727 0 0 0 0 0 0
0.981818 0 0 0 0 0 0
0.990909 0 0 0 0 0 0
1 0 0 0 0 0 0
